129	Cz	0	0	0	0	0	2	0.0000000	0.0000000	8.8991868	8.8991900	0.0000000	1.5708000	0.0000000	0.0000000
106	 	1	0	1	1	1	2	1.2238002	1.5588644	8.4404391	8.6699900	0.9052300	1.3401700	0.2134500	0.2718900	
80	 	1	1	2	1	-1	2	1.9551878	-0.684381	8.5648585	8.8118100	-0.336700	1.3334900	0.3356800	-0.117500	
55	CPz	1	2	3	0	-1	2	0.0000000	-2.138343	8.7918759	9.0481800	-1.570800	1.3322100	0.0000000	-0.357570	
31	 	1	3	4	-1	-1	2	-1.955187	-0.684381	8.5648585	8.8118100	-2.804890	1.3334900	-0.335680	-0.117500	
7	 	1	4	5	-1	1	2	-1.223800	1.5588644	8.4404391	8.6699900	2.2363600	1.3401700	-0.213450	0.2718900	
6	FCz	2	0	6	0	1	2	0.0000000	3.8067702	7.8913049	8.7615200	1.5708000	1.1213300	0.0000000	0.6721600	
112	FC2	2	1	7	1	1	2	2.4358707	3.2543072	7.6087662	8.6265499	0.9282500	1.0801300	0.4394500	0.5871000	
105	C2	2	2	8	1	1	2	3.6954909	0.9604110	7.6278281	8.5301100	0.2542600	1.1066900	0.6716000	0.1745400	
87	CP2	2	3	9	1	-1	2	3.9099026	-1.519049	7.7641349	8.8247700	-0.370570	1.0754600	0.6900200	-0.268080	
79	 	2	4	10	1	-1	2	2.2707520	-3.414835	8.2045565	9.1723600	-0.983970	1.1072800	0.3837500	-0.577089	
0	COM	2	5	11	0	-1	3	0.0000000	-4.407518	7.6285420	8.8102700	-1.570800	1.0468900	0.0000000	-0.782640	
54	 	2	6	12	-1	-1	2	-2.270752	-3.414835	8.2045565	9.1723600	-2.157620	1.1072800	-0.383750	-0.577089	
37	CP1	2	7	13	-1	-1	2	-3.909902	-1.519049	7.7641349	8.8247700	-2.771030	1.0754600	-0.690020	-0.268080	
30	C1	2	8	14	-1	1	2	-3.695490	0.9604110	7.6278281	8.5301100	2.8873300	1.1066900	-0.671600	0.1745400	
13	FC1	2	9	15	-1	1	2	-2.435870	3.2543072	7.6087662	8.6265499	2.2133400	1.0801300	-0.439450	0.5871000	
5	 	3	0	16	1	1	1	1.4793404	5.6866213	6.8128781	8.9967400	1.3162900	0.8591100	0.2667300	1.0253100	
118	 	3	1	17	1	1	1	3.8257971	5.1216489	5.9428448	8.7284300	0.9292300	0.7489400	0.7303100	0.9776800	
111	FC4	3	2	18	1	1	2	4.7621967	2.6978320	6.2976630	8.3437000	0.5154300	0.8553200	0.9266300	0.5249500	
104	C4	3	3	19	1	0	2	5.4791302	0.2849486	6.3833278	8.4171800	0.0519600	0.8608100	1.0555200	0.0548900	
93	CP4	3	4	20	1	-1	2	5.9560550	-2.338984	6.0036135	8.7743300	-0.374200	0.7535400	1.1296500	-0.443620	
86	 	3	5	21	1	-1	3	4.1935188	-4.037020	6.9829200	9.0908899	-0.766390	0.8759000	0.7455000	-0.717670	
78	 	3	6	22	1	-1	3	2.3449148	-5.481057	7.0577486	9.2386400	-1.166540	0.8693900	0.4107800	-0.960180	
62	Pz	3	7	23	0	-1	3	0.0000000	-6.676694	6.4652082	9.2939300	-1.570800	0.7693100	0.0000000	-1.190680	
61	 	3	8	24	-1	-1	3	-2.344914	-5.481057	7.0577486	9.2386400	-1.975050	0.8693900	-0.410780	-0.960180	
53	 	3	9	25	-1	-1	3	-4.193518	-4.037020	6.9829200	9.0908899	-2.375210	0.8759000	-0.745500	-0.717670	
42	CP3	3	10	26	-1	-1	2	-5.956055	-2.338984	6.0036135	8.7743300	-2.767390	0.7535400	-1.129650	-0.443620	
36	C3	3	11	27	-1	0	2	-5.479130	0.2849486	6.3833278	8.4171800	3.0896300	0.8608100	-1.055520	0.0548900	
29	FC3	3	12	28	-1	1	2	-4.762196	2.6978320	6.2976630	8.3437000	2.6261600	0.8553200	-0.926630	0.5249500	
20	 	3	13	29	-1	1	1	-3.825797	5.1216489	5.9428448	8.7284300	2.2123700	0.7489400	-0.730310	0.9776800	
12	 	3	14	30	-1	1	1	-1.479340	5.6866213	6.8128781	8.9967400	1.8253000	0.8591100	-0.266730	1.0253100	
11	Fz	4	0	31	0	1	1	0.0000000	7.9626470	5.0447180	9.4261800	1.5708000	0.5647199	0.0000000	1.4863000	
4	F2	4	1	32	1	1	1	2.8688375	7.1457085	4.9895645	9.1753499	1.1890200	0.5749600	0.5482900	1.3656800	
124	F4	4	2	33	1	1	1	4.4593871	6.0211599	4.3653214	8.6715900	0.9333300	0.5275300	0.9162400	1.2371199	
117	FC6	4	3	34	1	1	1	5.5466704	4.1578478	4.6276157	8.3347500	0.6432500	0.5886300	1.1618400	0.8709300	
110	 	4	4	35	1	1	2	6.4144698	1.4900277	4.7417945	8.1148100	0.2282400	0.6240600	1.3647500	0.3170200	
103	C6	4	5	36	1	0	2	6.9050517	-0.800953	4.6000565	8.3355700	-0.115480	0.5845900	1.4481100	-0.167970	
98	 	4	6	37	1	-1	2	6.7373137	-3.011819	4.1783902	8.4806500	-0.420390	0.5151900	1.4215100	-0.635460	
92	P4	4	7	38	1	-1	3	5.8312414	-4.494821	4.9553476	8.8748100	-0.656690	0.5924100	1.1457300	-0.883150	
85	P2	4	8	39	1	-1	3	4.1169295	-6.061561	5.3657572	9.0820100	-0.974180	0.6320600	0.7807200	-1.149500	
77	PO4	4	9	40	1	-1	3	1.8446444	-7.354417	5.2240017	9.2076299	-1.325040	0.6032900	0.3481300	-1.387970	
72	POz	4	10	41	0	-1	3	0.0000000	-7.829896	4.6876222	9.1258500	-1.570800	0.5394500	0.0000000	-1.522450	
67	PO3	4	11	42	-1	-1	3	-1.844644	-7.354417	5.2240017	9.2076299	-1.816550	0.6032900	-0.348130	-1.387970	
60	P1	4	12	43	-1	-1	3	-4.116929	-6.061561	5.3657572	9.0820100	-2.167420	0.6320600	-0.780720	-1.149500	
52	P3	4	13	44	-1	-1	3	-5.831241	-4.494821	4.9553476	8.8748100	-2.484900	0.5924100	-1.145730	-0.883150	
47	 	4	14	45	-1	-1	2	-6.737313	-3.011819	4.1783902	8.4806500	-2.721210	0.5151900	-1.421510	-0.635460	
41	C5	4	15	46	-1	0	2	-6.905051	-0.800953	4.6000565	8.3355700	-3.026110	0.5845900	-1.448110	-0.167970	
35	 	4	16	47	-1	1	2	-6.414469	1.4900277	4.7417945	8.1148100	2.9133500	0.6240600	-1.364750	0.3170200	
28	FC5	4	17	48	-1	1	1	-5.546670	4.1578478	4.6276157	8.3347500	2.4983400	0.5886300	-1.161840	0.8709300	
24	F3	4	18	49	-1	1	1	-4.459387	6.0211599	4.3653214	8.6715900	2.2082700	0.5275300	-0.916240	1.2371199	
19	F1	4	19	50	-1	1	1	-2.868837	7.1457085	4.9895645	9.1753499	1.9525800	0.5749600	-0.548290	1.3656800	
16	AFz	5	0	51	0	1	1	0.0000000	9.0764907	3.1054384	9.5930400	1.5708000	0.3296600	0.0000000	1.8189900	
10	 	5	1	52	1	1	1	1.8308823	8.7088391	3.1870911	9.4527000	1.3635800	0.3439000	0.3701300	1.7605800	
3	AF4	5	2	53	1	1	1	3.8641224	7.6342405	3.0677701	9.0897900	1.1022400	0.3442600	0.8122400	1.6047200	
123	F6	5	3	54	1	1	1	5.6825479	5.4533843	2.8365654	8.3711900	0.7648200	0.3456900	1.2962300	1.2439600	
116	FT8	5	4	55	1	1	1	6.8239596	2.9684221	2.4300803	7.8283600	0.4103100	0.3156300	1.6859600	0.7333900	
109	 	5	5	56	1	1	10	7.3919192	0.0321515	2.1436345	7.6965400	0.0043500	0.2822500	1.8850200	0.0082000	
102	TP8	5	6	57	1	-1	5	7.3125179	-2.298574	2.3852988	8.0278299	-0.304550	0.3016800	1.7725000	-0.557160	
97	 	5	7	58	1	-1	3	6.5580300	-4.667036	2.7499895	8.5059599	-0.618500	0.3292200	1.4825200	-1.055039	
91	 	5	8	59	1	-1	3	5.2045018	-6.437833	2.9844442	8.7999700	-0.890940	0.3460100	1.1291900	-1.396780	
84	 	5	9	60	1	-1	3	3.6082931	-7.665487	3.1299316	9.0319400	-1.130850	0.3538800	0.7602600	-1.615110	
76	 	5	10	61	1	-1	3	1.4049674	-8.437486	3.2772849	9.1600100	-1.405800	0.3658900	0.2904400	-1.744240	
71	 	5	11	62	-1	-1	3	-1.404967	-8.437486	3.2772849	9.1600100	-1.735800	0.3658900	-0.290440	-1.744240	
66	 	5	12	63	-1	-1	3	-3.608293	-7.665487	3.1299316	9.0319400	-2.010750	0.3538800	-0.760260	-1.615110	
59	 	5	13	64	-1	-1	3	-5.204501	-6.437833	2.9844442	8.7999700	-2.250650	0.3460100	-1.129190	-1.396780	
51	 	5	14	65	-1	-1	3	-6.558030	-4.667036	2.7499895	8.5059599	-2.523090	0.3292200	-1.482520	-1.055039	
46	TP7	5	15	66	-1	-1	5	-7.312517	-2.298574	2.3852988	8.0278299	-2.837040	0.3016800	-1.772500	-0.557160	
40	 	5	16	67	-1	1	10	-7.391919	0.0321515	2.1436345	7.6965400	3.1372400	0.2822500	-1.885020	0.0082000	
34	FT7	5	17	68	-1	1	1	-6.823959	2.9684221	2.4300803	7.8283600	2.7312800	0.3156300	-1.685960	0.7333900	
27	F5	5	18	69	-1	1	1	-5.682547	5.4533843	2.8365654	8.3711900	2.3767700	0.3456900	-1.296230	1.2439600	
23	AF3	5	19	70	-1	1	1	-3.864122	7.6342405	3.0677701	9.0897900	2.0393600	0.3442600	-0.812240	1.6047200	
18	 	5	20	71	-1	1	1	-1.830882	8.7088391	3.1870911	9.4527000	1.7780100	0.3439000	-0.370130	1.7605800	
15	FPz	6	0	72	0	1	1	0.0000000	9.0874408	1.3333450	9.1847400	1.5708000	0.1456800	0.0000000	2.0731399	
9	Fp2	6	1	73	1	1	1	2.6954055	8.8848203	1.0883081	9.3482400	1.2762500	0.1166800	0.6133200	2.0216600	
2	AF8	6	2	74	1	1	1	5.2918047	6.7090975	0.3074348	8.5504200	0.9029500	0.0359600	1.3759200	1.7444300	
122	F8	6	3	75	1	1	1	6.3990871	4.1272488	-0.356852	7.6229800	0.5728300	-0.046830	1.9600000	1.2641500	
115	 	6	4	76	1	1	5	7.1916201	0.8500962	-0.882936	7.2953200	0.1176600	-0.121330	2.4137600	0.2853200	
108	T4/T8	6	5	77	1	0	5	7.3046250	-1.866238	-0.629182	7.5654700	-0.250140	-0.083260	2.3064300	-0.589260	
101	 	6	6	78	1	-1	5	6.7824807	-4.023512	-0.232191	7.8895300	-0.535420	-0.029430	1.9860400	-1.178160	
96	T6/P8	6	7	79	1	-1	3	6.0347468	-5.755782	0.0518430	8.3396600	-0.761740	0.0062200	1.6366000	-1.560950	
90	PO8	6	8	80	1	-1	4	4.6453022	-7.280552	0.1301397	8.6372600	-1.002870	0.0150700	1.2101200	-1.896620	
83	O2	6	9	81	1	-1	4	2.7388380	-8.607966	0.2393682	9.0363500	-1.262750	0.0264900	0.6774900	-2.129290	
75	Oz	6	10	82	0	-1	4	0.0000000	-8.996686	0.4879520	9.0099100	-1.570800	0.0541800	0.0000000	-2.197240	
70	O1	6	11	83	-1	-1	4	-2.738838	-8.607966	0.2393682	9.0363500	-1.878840	0.0264900	-0.677490	-2.129290	
65	PO7	6	12	84	-1	-1	4	-4.645302	-7.280552	0.1301397	8.6372600	-2.138720	0.0150700	-1.210120	-1.896620	
58	T5/P7	6	13	85	-1	-1	3	-6.034746	-5.755782	0.0518430	8.3396600	-2.379850	0.0062200	-1.636600	-1.560950	
50	 	6	14	86	-1	-1	5	-6.782480	-4.023512	-0.232191	7.8895300	-2.606170	-0.029430	-1.986040	-1.178160	
45	T3/T7	6	15	87	-1	0	5	-7.304625	-1.866238	-0.629182	7.5654700	-2.891460	-0.083260	-2.306430	-0.589260	
39	 	6	16	88	-1	1	5	-7.191620	0.8500962	-0.882936	7.2953200	3.0239300	-0.121330	-2.413760	0.2853200	
33	F7	6	17	89	-1	1	1	-6.399087	4.1272488	-0.356852	7.6229800	2.5687600	-0.046830	-1.960000	1.2641500	
26	AF7	6	18	90	-1	1	1	-5.291804	6.7090975	0.3074348	8.5504200	2.2386400	0.0359600	-1.375920	1.7444300	
22	Fp1	6	19	91	-1	1	1	-2.695405	8.8848203	1.0883081	9.3482400	1.8653400	0.1166800	-0.613320	2.0216600	
14	 	7	0	92	1	1	0	1.2704476	9.4790163	-0.947183	9.6105600	1.4375600	-0.098720	0.3189300	2.3796000	
8	 	7	1	93	1	1	0	4.2219015	7.9988173	-1.354789	9.1455400	1.0851399	-0.148680	1.1512500	2.1811600	
1	F10	7	2	94	1	1	9	5.7876776	5.5208632	-2.577468	8.4036000	0.7618100	-0.311730	1.9363700	1.8471000	
121	FT10	7	3	95	1	1	6	6.5507328	3.6115431	-3.353155	8.1974999	0.5038600	-0.421410	2.4639100	1.3584000	
114	T10	7	4	96	1	1	8	6.8407177	1.2784894	-3.555382	7.8147700	0.1847600	-0.472320	2.8274000	0.5284200	
100	RM	7	5	97	1	-1	7	6.5804383	-3.739554	-2.991084	8.1383700	-0.516770	-0.376350	2.3973600	-1.362380	
95	P10	7	6	98	1	-1	4	5.4040913	-5.870302	-2.891640	8.4868300	-0.826730	-0.347680	1.8432100	-2.002220	
89	 	7	7	99	1	-1	4	3.5288480	-7.603010	-2.818037	8.8430700	-1.136249	-0.324330	1.1333400	-2.441810	
82	 	7	8	100	1	-1	4	1.1257311	-8.455208	-2.632832	8.9269000	-1.438430	-0.299380	0.3511100	-2.637130	
74	 	7	9	101	-1	-1	4	-1.125731	-8.455208	-2.632832	8.9269000	-1.703160	-0.299380	-0.351110	-2.637130	
69	 	7	10	102	-1	-1	4	-3.528848	-7.603010	-2.818037	8.8430700	-2.005349	-0.324330	-1.133340	-2.441810	
64	P9	7	11	103	-1	-1	4	-5.404091	-5.870302	-2.891640	8.4868300	-2.314869	-0.347680	-1.843210	-2.002220	
57	LM	7	12	104	-1	-1	7	-6.580438	-3.739554	-2.991084	8.1383700	-2.624820	-0.376350	-2.397360	-1.362380	
44	T9	7	13	105	-1	1	8	-6.840717	1.2784894	-3.555382	7.8147700	2.9568300	-0.472320	-2.827400	0.5284200	
38	FT9	7	14	106	-1	1	6	-6.550732	3.6115431	-3.353155	8.1974999	2.6377400	-0.421410	-2.463910	1.3584000	
32	F9	7	15	107	-1	1	9	-5.787677	5.5208632	-2.577468	8.4036000	2.3797800	-0.311730	-1.936370	1.8471000	
25	 	7	16	108	-1	1	0	-4.221901	7.9988173	-1.354789	9.1455400	2.0564500	-0.148680	-1.151250	2.1811600	
21	 	7	17	109	-1	1	0	-1.270447	9.4790163	-0.947183	9.6105600	1.7040300	-0.098720	-0.318930	2.3796000	
17	NAS	8	0	110	0	1	0	0.0000000	9.2711397	-2.211516	9.5312600	1.5708000	-0.234160	0.0000000	2.5770600	
125	 	8	1	111	1	1	6	6.1184581	4.5238701	-4.409174	8.7944200	0.6366700	-0.525170	2.3646700	1.7483900	
120	 	8	2	112	1	1	8	6.5189951	2.4172993	-5.253637	8.7144300	0.3550900	-0.647090	2.8941700	1.0731800	
113	 	8	3	113	1	0	8	6.2981273	0.4166345	-6.069156	8.7564100	0.0660600	-0.765800	3.2177900	0.2128600	
107	 	8	4	114	1	-1	8	6.1749693	-2.458138	-5.637380	8.7150900	-0.378850	-0.703450	2.9292300	-1.166070	
99	 	8	5	115	1	-1	7	5.3332661	-4.302240	-5.613509	8.8580200	-0.678800	-0.686350	2.4383799	-1.966990	
94	 	8	6	116	1	-1	7	3.7849839	-6.401014	-5.260040	9.1086300	-1.036790	-0.615640	1.5521400	-2.624920	
88	 	8	7	117	1	-1	7	1.9296522	-7.497197	-5.136777	9.2907500	-1.318880	-0.585830	0.7512500	-2.918800	
81	 	8	8	118	0	-1	7	0.0000000	-7.858918	-4.945387	9.2854400	-1.570800	-0.561660	0.0000000	-2.984930	
73	 	8	9	119	-1	-1	7	-1.929652	-7.497197	-5.136777	9.2907500	-1.822710	-0.585830	-0.751250	-2.918800	
68	 	8	10	120	-1	-1	7	-3.784983	-6.401014	-5.260040	9.1086300	-2.104800	-0.615640	-1.552140	-2.624920	
63	 	8	11	121	-1	-1	7	-5.333266	-4.302240	-5.613509	8.8580200	-2.462790	-0.686350	-2.438379	-1.966990	
56	 	8	12	122	-1	-1	8	-6.174969	-2.458138	-5.637380	8.7150900	-2.762740	-0.703450	-2.929230	-1.166070	
49	 	8	13	123	-1	0	8	-6.298127	0.4166345	-6.069156	8.7564100	3.0755400	-0.765800	-3.217790	0.2128600	
43	 	8	14	124	-1	1	8	-6.518995	2.4172993	-5.253637	8.7144300	2.7865000	-0.647090	-2.894170	1.0731800	
128	 	8	15	125	-1	1	6	-6.118458	4.5238701	-4.409174	8.7944200	2.5049200	-0.525170	-2.364670	1.7483900	
126	 	9	0	126	1	1	0	3.7435049	6.6492049	-6.530243	10.043400	1.0580300	-0.707850	1.5492500	2.7517800	
119	 	9	1	127	1	1	8	5.9345841	2.2269779	-7.934360	10.155430	0.3589900	-0.896730	3.1574100	1.1848300	
48	 	9	2	128	-1	1	8	-5.934584	2.2269779	-7.934360	10.155430	2.7826000	-0.896730	-3.157410	1.1848300	
127	 	9	3	129	-1	1	0	-3.743504	6.6492049	-6.530243	10.043400	2.0835700	-0.707850	-1.549250	2.7517800	
